   323    17    0     datakind beginning-row linenumbers
----------------------------------------------------------------
MSCD Version 1.00 Yufeng Chen and Michel A Van Hove
Lawrence Berkeley National Laboratory (LBNL), Berkeley, CA 94720
Copyright (c) Van Hove Group 1997. All rights reserved
--------------------------------------------------------------
 angle-resolved photoemission extended fine structure (ARPEFS)
 experimental data for Pd 3d3/2 from W(100)  excited with hv=1810eV

 provided by Pancotti et al. (LNLS in 12, June 2007)
   intial angular momentum (l) = 2
   photon polarization angle (polar,azimuth) = (  30.0,   0.0 ) (deg)
   sample temperature = 300 K

   photoemission angular scan curves
     (curve point theta phi weightc weighte//k intensity chiexp)
      18    720       1      18     40    720
       1     40      9.85000      18      1.00000      0.00000
      131.500      130670.      111947.   -0.0217681
      134.500      127811.      111947.   -0.0425049
      137.500      126715.      111947.   -0.0469246
      140.500      128038.      111947.   -0.0301990
      143.500      131440.      111947.    0.0053817
      146.500      133937.      111947.    0.0372519
      149.500      135537.      111947.    0.0652579
      152.500      134229.      111947.    0.0729969
      155.500      129683.      111947.    0.0564355
      158.500      125572.      111947.    0.0442913
      161.500      121200.      111947.    0.0305372
      164.500      117363.      111947.    0.0216062
      167.500      114884.      111947.    0.0248168
      170.500      108849.      111947.   -0.0042275
      173.500      105433.      111947.   -0.0104399
      176.500      101484.      111947.   -0.0227270
      179.500      97247.3      111947.   -0.0394961
      182.500      93036.8      111947.   -0.0582334
      185.500      88008.7      111947.   -0.0881189
      188.500      85224.2      111947.   -0.0977341
      191.500      84899.8      111947.   -0.0837039
      194.500      86345.7      111947.   -0.0527175
      197.500      90131.4      111947.    0.0016726
      200.500      91837.5      111947.    0.0297551
      203.500      92522.3      111947.    0.0419376
      206.500      89082.8      111947.    0.0024745
      209.500      86758.2      111947.   -0.0297262
      212.500      87214.8      111947.   -0.0362659
      215.500      91461.1      111947.   -0.0074017
      218.500      95898.7      111947.    0.0159420
      221.500      101269.      111947.    0.0409272
      224.500      106702.      111947.    0.0578961
      227.500      111431.      111947.    0.0596485
      230.500      115214.      111947.    0.0453872
      233.500      120425.      111947.    0.0375760
      236.500      126270.      111947.    0.0286709
      239.500      133866.      111947.    0.0272759
      242.500      139513.      111947.    0.0052372
      245.500      143940.      111947.   -0.0288227
      248.500      146744.      111947.   -0.0749173
       2     40      9.85000      21      1.00000      0.00000
      131.500      102450.      104670.    0.0337959
      134.500      100382.      104670.   -0.0044952
      137.500      98922.2      104670.   -0.0325694
      140.500      100491.      104670.   -0.0279054
      143.500      101984.      104670.   -0.0215074
      146.500      104945.      104670.    0.0011514
      149.500      107228.      104670.    0.0193248
      152.500      106330.      104670.    0.0092289
      155.500      102727.      104670.   -0.0247595
      158.500      100092.      104670.   -0.0480947
      161.500      100976.      104670.   -0.0366933
      164.500      104665.      104670.    0.0027844
      167.500      109239.      104670.    0.0521054
      170.500      111381.      104670.    0.0791936
      173.500      111687.      104670.    0.0892929
      176.500      110607.      104670.    0.0862564
      179.500      107882.      104670.    0.0670272
      182.500      106183.      104670.    0.0576222
      185.500      103161.      104670.    0.0344728
      188.500      99803.2      104670.    0.0070508
      191.500      93474.4      104670.   -0.0516190
      194.500      86184.3      104670.   -0.1216296
      197.500      81817.8      104670.   -0.1633767
      200.500      81796.3      104670.   -0.1620479
      203.500      85249.0      104670.   -0.1265296
      206.500      89923.1      104670.   -0.0802366
      209.500      95848.9      104670.   -0.0233967
      212.500      102158.      104670.    0.0344841
      215.500      105469.      104670.    0.0588057
      218.500      108429.      104670.    0.0762821
      221.500      111616.      104670.    0.0924371
      224.500      113035.      104670.    0.0877449
      227.500      115824.      104670.    0.0926761
      230.500      114666.      104670.    0.0573597
      233.500      113096.      104670.    0.0163800
      236.500      112254.      104670.   -0.0196618
      239.500      113057.      104670.   -0.0432192
      242.500      117256.      104670.   -0.0410141
      245.500      125242.      104670.   -0.0126635
      248.500      129262.      104670.   -0.0201280
       3     40      9.85000      24      1.00000      0.00000
      131.500      87580.4      102340.    0.0458267
      134.500      85930.1      102340.    0.0095864
      137.500      85557.3      102340.   -0.0106861
      140.500      85764.0      102340.   -0.0236507
      143.500      86741.7      102340.   -0.0274636
      146.500      87903.7      102340.   -0.0289828
      149.500      92031.5      102340.    0.0020080
      152.500      92850.1      102340.   -0.0031872
      155.500      91513.6      102340.   -0.0308232
      158.500      90491.6      102340.   -0.0541789
      161.500      93657.3      102340.   -0.0334366
      164.500      98661.4      102340.    0.0058555
      167.500      101581.      102340.    0.0235721
      170.500      104337.      102340.    0.0396507
      173.500      106746.      102340.    0.0523841
      176.500      109493.      102340.    0.0686165
      179.500      110783.      102340.    0.0709422
      182.500      112179.      102340.    0.0747680
      185.500      116181.      102340.    0.1038329
      188.500      115011.      102340.    0.0842703
      191.500      108988.      102340.    0.0201822
      194.500      98381.5      102340.   -0.0850619
      197.500      89134.5      102340.   -0.1758843
      200.500      87225.1      102340.   -0.1976927
      203.500      91237.9      102340.   -0.1645273
      206.500      99679.4      102340.   -0.0906536
      209.500      109968.      102340.    0.0001750
      212.500      118212.      102340.    0.0727151
      215.500      117684.      102340.    0.0663186
      218.500      117759.      102340.    0.0662610
      221.500      117273.      102340.    0.0620073
      224.500      117058.      102340.    0.0611125
      227.500      115159.      102340.    0.0458577
      230.500      114535.      102340.    0.0431064
      233.500      112666.      102340.    0.0299535
      236.500      107724.      102340.   -0.0105360
      239.500      102867.      102340.   -0.0496512
      242.500      102262.      102340.   -0.0487144
      245.500      104947.      102340.   -0.0158723
      248.500      105826.      102340.    0.0015594
       4     40      9.85000      27      1.00000      0.00000
      131.500      91681.3      98504.3   -0.1175230
      134.500      102085.      98504.3    0.0104788
      137.500      108725.      98504.3    0.1026972
      140.500      108260.      98504.3    0.1209022
      143.500      103688.      98504.3    0.0919944
      146.500      96430.6      98504.3    0.0293108
      149.500      90659.4      98504.3   -0.0225640
      152.500      89369.9      98504.3   -0.0299684
      155.500      87117.0      98504.3   -0.0509666
      158.500      88749.8      98504.3   -0.0323929
      161.500      89809.5      98504.3   -0.0225562
      164.500      88884.9      98504.3   -0.0365167
      167.500      83877.1      98504.3   -0.0962578
      170.500      80529.7      98504.3   -0.1389814
      173.500      83431.8      98504.3   -0.1160126
      176.500      87899.9      98504.3   -0.0780778
      179.500      91473.0      98504.3   -0.0510326
      182.500      95127.1      98504.3   -0.0243380
      185.500      100726.      98504.3    0.0211208
      188.500      108534.      98504.3    0.0875661
      191.500      114767.      98504.3    0.1370737
      194.500      116032.      98504.3    0.1372480
      197.500      113589.      98504.3    0.1021715
      200.500      111883.      98504.3    0.0757983
      203.500      113897.      98504.3    0.0865546
      206.500      114900.      98504.3    0.0890200
      209.500      114489.      98504.3    0.0798370
      212.500      109509.      98504.3    0.0296924
      215.500      103245.      98504.3   -0.0302026
      218.500      99833.9      98504.3   -0.0610848
      221.500      98027.5      98504.3   -0.0746088
      224.500      94528.3      98504.3   -0.1017932
      227.500      89345.8      98504.3   -0.1428398
      230.500      88953.0      98504.3   -0.1354246
      233.500      94185.7      98504.3   -0.0690451
      236.500      98088.4      98504.3   -0.0098455
      239.500      97279.5      98504.3    0.0076682
      242.500      96649.4      98504.3    0.0328835
      245.500      96213.6      98504.3    0.0674009
      248.500      97697.3      98504.3    0.1332282
       5     40      9.85000      30      1.00000      0.00000
      131.500      293764.      285969.   -0.0558212
      134.500      301591.      285969.   -0.0003432
      137.500      304634.      285969.    0.0376264
      140.500      311569.      285969.    0.0866059
      143.500      308787.      285969.    0.0986294
      146.500      301349.      285969.    0.0898574
      149.500      287877.      285969.    0.0545950
      152.500      273194.      285969.    0.0103192
      155.500      255814.      285969.   -0.0480191
      158.500      252104.      285969.   -0.0587581
      161.500      250675.      285969.   -0.0636054
      164.500      246190.      285969.   -0.0821473
      167.500      232748.      285969.   -0.1358372
      170.500      218602.      285969.   -0.1932199
      173.500      223169.      285969.   -0.1825857
      176.500      235465.      285969.   -0.1451474
      179.500      242160.      285969.   -0.1294255
      182.500      256438.      285969.   -0.0877186
      185.500      275479.      285969.   -0.0305824
      188.500      307673.      285969.    0.0708679
      191.500      348255.      285969.    0.1990286
      194.500      366154.      285969.    0.2475312
      197.500      377939.      285969.    0.2750854
      200.500      378803.      285969.    0.2665892
      203.500      375827.      285969.    0.2467753
      206.500      360727.      285969.    0.1888391
      209.500      342295.      285969.    0.1224097
      212.500      303663.      285969.   -0.0075531
      215.500      268451.      285969.   -0.1238087
      218.500      257324.      285969.   -0.1593937
      221.500      247474.      285969.   -0.1888821
      224.500      240934.      285969.   -0.2055299
      227.500      236481.      285969.   -0.2131126
      230.500      245183.      285969.   -0.1739634
      233.500      267298.      285969.   -0.0847945
      236.500      280653.      285969.   -0.0193379
      239.500      279751.      285969.    0.0022734
      242.500      279158.      285969.    0.0309518
      245.500      291490.      285969.    0.1164225
      248.500      311605.      285969.    0.2464586
       6     40      9.85000      33      1.00000      0.00000
      131.500      317748.      311914.   -0.0068195
      134.500      322496.      311914.    0.0352478
      137.500      304211.      311914.   -0.0012249
      140.500      306628.      311914.    0.0253596
      143.500      323484.      311914.    0.0972868
      146.500      333268.      311914.    0.1422250
      149.500      295365.      311914.    0.0190203
      152.500      264502.      311914.   -0.0846329
      155.500      262522.      311914.   -0.0915979
      158.500      268172.      311914.   -0.0748461
      161.500      270596.      311914.   -0.0716770
      164.500      270731.      311914.   -0.0784106
      167.500      270922.      311914.   -0.0865893
      170.500      268891.      311914.   -0.1034435
      173.500      270368.      311914.   -0.1094699
      176.500      284123.      311914.   -0.0762612
      179.500      301133.      311914.   -0.0340534
      182.500      307963.      311914.   -0.0255002
      185.500      312367.      311914.   -0.0247818
      188.500      327955.      311914.    0.0106280
      191.500      357865.      311914.    0.0892789
      194.500      391102.      311914.    0.1769694
      197.500      413639.      311914.    0.2321674
      200.500      420921.      311914.    0.2429189
      203.500      411487.      311914.    0.2064681
      206.500      389586.      311914.    0.1363267
      209.500      354473.      311914.    0.0307442
      212.500      329547.      311914.   -0.0423894
      215.500      317724.      311914.   -0.0749310
      218.500      316690.      311914.   -0.0734172
      221.500      302593.      311914.   -0.1074254
      224.500      278656.      311914.   -0.1683252
      227.500      273025.      311914.   -0.1721955
      230.500      283164.      311914.   -0.1239088
      233.500      284422.      311914.   -0.0974862
      236.500      280974.      311914.   -0.0803472
      239.500      281554.      311914.   -0.0431579
      242.500      288149.      311914.    0.0245456
      245.500      293226.      311914.    0.1006679
      248.500      324307.      311914.    0.2990665
       7     40      9.85000      36      1.00000      0.00000
      131.500      279106.      313254.   -0.0227110
      134.500      294567.      313254.    0.0367270
      137.500      285481.      313254.    0.0077054
      140.500      283715.      313254.    0.0023543
      143.500      294160.      313254.    0.0381886
      146.500      290904.      313254.    0.0238506
      149.500      255555.      313254.   -0.1044779
      152.500      243827.      313254.   -0.1504950
      155.500      281971.      313254.   -0.0244684
      158.500      322010.      313254.    0.1050864
      161.500      338914.      313254.    0.1527063
      164.500      321847.      313254.    0.0840964
      167.500      286753.      313254.   -0.0439664
      170.500      273693.      313254.   -0.0971733
      173.500      302541.      313254.   -0.0128229
      176.500      330832.      313254.    0.0676961
      179.500      319626.      313254.    0.0203124
      182.500      298021.      313254.   -0.0588290
      185.500      285935.      313254.   -0.1063725
      188.500      292082.      313254.   -0.0962381
      191.500      321852.      313254.   -0.0134770
      194.500      347995.      313254.    0.0573581
      197.500      367594.      313254.    0.1080446
      200.500      373851.      313254.    0.1189721
      203.500      367789.      313254.    0.0941873
      206.500      348104.      313254.    0.0305297
      209.500      320360.      313254.   -0.0551038
      212.500      302534.      313254.   -0.1097777
      215.500      311550.      313254.   -0.0840614
      218.500      329152.      313254.   -0.0316346
      221.500      352408.      313254.    0.0392914
      224.500      345607.      313254.    0.0236028
      227.500      305060.      313254.   -0.0907881
      230.500      301130.      313254.   -0.0948736
      233.500      341227.      313254.    0.0368197
      236.500      370129.      313254.    0.1398180
      239.500      358114.      313254.    0.1208512
      242.500      315704.      313254.    0.0073811
      245.500      279668.      313254.   -0.0871043
      248.500      288809.      313254.   -0.0319540
       8     40      9.85000      39      1.00000      0.00000
      131.500      222264.      276964.    0.0030877
      134.500      225607.      276964.   -0.0201452
      137.500      229877.      276964.   -0.0341268
      140.500      235224.      276964.   -0.0394760
      143.500      230738.      276964.   -0.0806111
      146.500      235410.      276964.   -0.0814446
      149.500      236978.      276964.   -0.0916235
      152.500      264846.      276964.    0.0001274
      155.500      312618.      276964.    0.1659432
      158.500      339954.      276964.    0.2550557
      161.500      342037.      276964.    0.2524721
      164.500      315629.      276964.    0.1484113
      167.500      290584.      276964.    0.0522077
      170.500      269970.      276964.   -0.0257968
      173.500      252134.      276964.   -0.0922129
      176.500      238204.      276964.   -0.1434458
      179.500      230169.      276964.   -0.1726980
      182.500      224482.      276964.   -0.1929718
      185.500      227894.      276964.   -0.1801475
      188.500      243886.      276964.   -0.1217641
      191.500      282349.      276964.    0.0178551
      194.500      309413.      276964.    0.1165813
      197.500      304639.      276964.    0.1002424
      200.500      305003.      276964.    0.1019948
      203.500      314537.      276964.    0.1362331
      206.500      311092.      276964.    0.1227253
      209.500      278403.      276964.    0.0028654
      212.500      243396.      276964.   -0.1258485
      215.500      239449.      276964.   -0.1436760
      218.500      247572.      276964.   -0.1196381
      221.500      262328.      276964.   -0.0739072
      224.500      275556.      276964.   -0.0358879
      227.500      283002.      276964.   -0.0204662
      230.500      303000.      276964.    0.0354825
      233.500      323426.      276964.    0.0890862
      236.500      365402.      276964.    0.2098609
      239.500      376717.      276964.    0.2238294
      242.500      343761.      276964.    0.0933469
      245.500      286093.      276964.   -0.1110974
      248.500      254925.      276964.   -0.2279234
       9     40      9.85000      42      1.00000      0.00000
      131.500      246724.      278230.    0.2381688
      134.500      204567.      278230.   -0.0539524
      137.500      184581.      278230.   -0.2008280
      140.500      188072.      278230.   -0.2279227
      143.500      202376.      278230.   -0.2040145
      146.500      240726.      278230.   -0.0848942
      149.500      292182.      278230.    0.0815196
      152.500      321526.      278230.    0.1662951
      155.500      349682.      278230.    0.2499551
      158.500      349859.      278230.    0.2383739
      161.500      333013.      278230.    0.1722128
      164.500      323794.      278230.    0.1376711
      167.500      308469.      278230.    0.0853498
      170.500      276084.      278230.   -0.0245153
      173.500      244546.      278230.   -0.1302693
      176.500      219095.      278230.   -0.2141499
      179.500      202510.      278230.   -0.2663489
      182.500      220544.      278230.   -0.1921375
      185.500      248070.      278230.   -0.0806499
      188.500      271994.      278230.    0.0199772
      191.500      290400.      278230.    0.1015359
      194.500      279605.      278230.    0.0718605
      197.500      243887.      278230.   -0.0564604
      200.500      236035.      278230.   -0.0802457
      203.500      265491.      278230.    0.0393776
      206.500      295736.      278230.    0.1596369
      209.500      291495.      278230.    0.1407126
      212.500      265924.      278230.    0.0343111
      215.500      234584.      278230.   -0.0972319
      218.500      219068.      278230.   -0.1699216
      221.500      222816.      278230.   -0.1729845
