   323    17    0     datakind beginning-row linenumbers
----------------------------------------------------------------
MSCD Version 1.00 Yufeng Chen and Michel A Van Hove
Lawrence Berkeley National Laboratory (LBNL), Berkeley, CA 94720
Copyright (c) Van Hove Group 1997. All rights reserved
--------------------------------------------------------------
 angle-resolved photoemission extended fine structure (ARPEFS)
 experimental data for Pd 3d3/2 from W(100)  excited with hv=1810eV

 provided by Pancotti et al. (LNLS in 12, June 2007)
   intial angular momentum (l) = 2
   photon polarization angle (polar,azimuth) = (  30.0,   0.0 ) (deg)
   sample temperature = 300 K

   photoemission angular scan curves
     (curve point theta phi weightc weighte//k intensity chiexp)
      20    2420       1      20     121    2420
       1     121      9.85000      12      1.00000      0.00000
      128.500      325586.      352723.    0.0000605
      131.500      339400.      352723.    0.0093187
      134.500      344807.      352723.   -0.0058076
      137.500      357484.      352723.   -0.0083568
      140.500      362181.      352723.   -0.0136983
      143.500      366549.      352723.   -0.0235225
      146.500      377452.      352723.   -0.0149690
      149.500      388699.      352723.    0.0040049
      152.500      389505.      352723.   -0.0084880
      155.500      379806.      352723.   -0.0110291
      158.500      379882.      352723.   -0.0055387
      161.500      382815.      352723.   -0.0050221
      164.500      370866.      352723.   -0.0244237
      167.500      370506.      352723.   -0.0261191
      170.500      369678.      352723.   -0.0230361
      173.500      364105.      352723.   -0.0233975
      176.500      372651.      352723.   -0.0126865
      179.500      367849.      352723.   -0.0160695
      182.500      375645.      352723.   -0.0197070
      185.500      381549.      352723.   -0.0077355
      188.500      393458.      352723.    0.0100624
      191.500      400969.      352723.    0.0266937
      194.500      406444.      352723.    0.0367415
      197.500      408786.      352723.    0.0300971
      200.500      415234.      352723.    0.0321379
      203.500      406810.      352723.    0.0343672
      206.500      403445.      352723.    0.0269848
      209.500      394212.      352723.    0.0187483
      212.500      392677.      352723.    0.0145326
      215.500      377262.      352723.    0.0060510
      218.500      377843.      352723.    0.0000605
      221.500      374570.      352723.    0.0093187
      224.500      361968.      352723.   -0.0058076
      227.500      350462.      352723.   -0.0083568
      230.500      344708.      352723.   -0.0136983
      233.500      335540.      352723.   -0.0235225
      236.500      332628.      352723.   -0.0149690
      239.500      336316.      352723.    0.0040049
      242.500      327392.      352723.   -0.0084880
      245.500      334423.      352723.   -0.0110291
      248.500      337458.      352723.   -0.0055388
      251.500      334159.      352723.   -0.0050222
      254.500      330122.      352723.   -0.0244237
      257.500      327555.      352723.   -0.0261191
      260.500      328254.      352723.   -0.0230361
      263.500      330385.      352723.   -0.0233975
      266.500      327751.      352723.   -0.0126865
      269.500      326883.      352723.   -0.0160696
      272.500      315541.      352723.   -0.0197070
      275.500      315541.      352723.   -0.0077355
      278.500      314262.      352723.    0.0100623
      281.500      315661.      352723.    0.0266938
      284.500      314534.      352723.    0.0367415
      287.500      305660.      352723.    0.0300971
      290.500      298904.      352723.    0.0321379
      293.500      304047.      352723.    0.0343672
      296.500      299486.      352723.    0.0269848
      299.500      299213.      352723.    0.0187483
      302.500      295418.      352723.    0.0145326
      305.500      300367.      352723.    0.0060510
      308.500      325586.      352723.    0.0000605
      311.500      339400.      352723.    0.0093187
      314.500      344807.      352723.   -0.0058076
      317.500      357484.      352723.   -0.0083568
      320.500      362181.      352723.   -0.0136983
      323.500      366549.      352723.   -0.0235225
      326.500      377452.      352723.   -0.0149690
      329.500      388699.      352723.    0.0040049
      332.500      389505.      352723.   -0.0084880
      335.500      379806.      352723.   -0.0110291
      338.500      379882.      352723.   -0.0055387
      341.500      382815.      352723.   -0.0050221
      344.500      370866.      352723.   -0.0244237
      347.500      370506.      352723.   -0.0261191
      350.500      369678.      352723.   -0.0230361
      353.500      364105.      352723.   -0.0233975
      356.500      372651.      352723.   -0.0126865
      359.500      367849.      352723.   -0.0160695
      360.000      325586.      352723.    0.0000605
      362.500      375645.      352723.   -0.0197070
      365.500      381549.      352723.   -0.0077355
      368.500      393458.      352723.    0.0100624
      371.500      400969.      352723.    0.0266937
      374.500      406444.      352723.    0.0367415
      377.500      408786.      352723.    0.0300971
      380.500      415234.      352723.    0.0321379
      383.500      406810.      352723.    0.0343672
      386.500      403445.      352723.    0.0269848
      389.500      394212.      352723.    0.0187483
      392.500      392677.      352723.    0.0145326
      395.500      377262.      352723.    0.0060510
      398.500      377843.      352723.    0.0000605
      401.500      374570.      352723.    0.0093187
      404.500      361968.      352723.   -0.0058076
      407.500      350462.      352723.   -0.0083568
      410.500      344708.      352723.   -0.0136983
      413.500      335540.      352723.   -0.0235225
      416.500      332628.      352723.   -0.0149690
      419.500      336316.      352723.    0.0040049
      422.500      327392.      352723.   -0.0084880
      425.500      334423.      352723.   -0.0110291
      428.500      337458.      352723.   -0.0055388
      431.500      334159.      352723.   -0.0050222
      434.500      330122.      352723.   -0.0244237
      437.500      327555.      352723.   -0.0261191
      440.500      328254.      352723.   -0.0230361
      443.500      330385.      352723.   -0.0233975
      446.500      327751.      352723.   -0.0126865
      449.500      326883.      352723.   -0.0160696
      452.500      315541.      352723.   -0.0197070
      455.500      315541.      352723.   -0.0077355
      458.500      314262.      352723.    0.0100623
      461.500      315661.      352723.    0.0266938
      464.500      314534.      352723.    0.0367415
      467.500      305660.      352723.    0.0300971
      470.500      298904.      352723.    0.0321379
      473.500      304047.      352723.    0.0343672
      476.500      299486.      352723.    0.0269848
      479.500      299213.      352723.    0.0187483
      482.500      295418.      352723.    0.0145326
      485.500      300367.      352723.    0.0060510
       2     121      9.85000      15      1.00000      0.00000
      128.500      328712.      351147.   -0.0844889
      131.500      336508.      351147.   -0.0839833
      134.500      348417.      351147.   -0.0856303
      137.500      359682.      351147.   -0.0804957
      140.500      370336.      351147.   -0.0620066
      143.500      385985.      351147.   -0.0400308
      146.500      404567.      351147.   -0.0023572
      149.500      408552.      351147.    0.0090682
      152.500      419810.      351147.    0.0341466
      155.500      423372.      351147.    0.0404641
      158.500      425376.      351147.    0.0497477
      161.500      419413.      351147.    0.0490098
      164.500      415889.      351147.    0.0333475
      167.500      403499.      351147.    0.0241148
      170.500      391510.      351147.    0.0159330
      173.500      384759.      351147.    0.0072850
      176.500      386819.      351147.    0.0034967
      179.500      383826.      351147.    0.0064589
      182.500      385277.      351147.    0.0166533
      185.500      399778.      351147.    0.0293534
      188.500      406913.      351147.    0.0368231
      191.500      410396.      351147.    0.0406108
      194.500      425719.      351147.    0.0574747
      197.500      416182.      351147.    0.0333895
      200.500      424996.      351147.    0.0606005
      203.500      411507.      351147.    0.0374064
      206.500      398058.      351147.    0.0189088
      209.500      382101.      351147.   -0.0245550
      212.500      371542.      351147.   -0.0389067
      215.500      345034.      351147.   -0.0964346
      218.500      327557.      351147.   -0.0844889
      221.500      323792.      351147.   -0.0839833
      224.500      313739.      351147.   -0.0856302
      227.500      308790.      351147.   -0.0804956
      230.500      313348.      351147.   -0.0620066
      233.500      315140.      351147.   -0.0400308
      236.500      324627.      351147.   -0.0023571
      239.500      328414.      351147.    0.0090681
      242.500      334474.      351147.    0.0341466
      245.500      333969.      351147.    0.0404641
      248.500      336178.      351147.    0.0497477
      251.500      337817.      351147.    0.0490098
      254.500      327579.      351147.    0.0333474
      257.500      328129.      351147.    0.0241147
      260.500      328678.      351147.    0.0159330
      263.500      324716.      351147.    0.0072850
      266.500      317001.      351147.    0.0034967
      269.500      317089.      351147.    0.0064589
      272.500      318093.      351147.    0.0166533
      275.500      310929.      351147.    0.0293534
      278.500      306110.      351147.    0.0368231
      281.500      301855.      351147.    0.0406109
      284.500      296565.      351147.    0.0574746
      287.500      286016.      351147.    0.0333895
      290.500      291472.      351147.    0.0606005
      293.500      284771.      351147.    0.0374064
      296.500      281051.      351147.    0.0189088
      299.500      265513.      351147.   -0.0245550
      302.500      262762.      351147.   -0.0389067
      305.500      248126.      351147.   -0.0964346
      308.500      328712.      351147.   -0.0844889
      311.500      336508.      351147.   -0.0839833
      314.500      348417.      351147.   -0.0856303
      317.500      359682.      351147.   -0.0804957
      320.500      370336.      351147.   -0.0620066
      323.500      385985.      351147.   -0.0400308
      326.500      404567.      351147.   -0.0023572
      329.500      408552.      351147.    0.0090682
      332.500      419810.      351147.    0.0341466
      335.500      423372.      351147.    0.0404641
      338.500      425376.      351147.    0.0497477
      341.500      419413.      351147.    0.0490098
      344.500      415889.      351147.    0.0333475
      347.500      403499.      351147.    0.0241148
      350.500      391510.      351147.    0.0159330
      353.500      384759.      351147.    0.0072850
      356.500      386819.      351147.    0.0034967
      359.500      383826.      351147.    0.0064589
      360.000      328712.      351147.   -0.0844889
      362.500      385277.      351147.    0.0166533
      365.500      399778.      351147.    0.0293534
      368.500      406913.      351147.    0.0368231
      371.500      410396.      351147.    0.0406108
      374.500      425719.      351147.    0.0574747
      377.500      416182.      351147.    0.0333895
      380.500      424996.      351147.    0.0606005
      383.500      411507.      351147.    0.0374064
      386.500      398058.      351147.    0.0189088
      389.500      382101.      351147.   -0.0245550
      392.500      371542.      351147.   -0.0389067
      395.500      345034.      351147.   -0.0964346
      398.500      327557.      351147.   -0.0844889
      401.500      323792.      351147.   -0.0839833
      404.500      313739.      351147.   -0.0856302
      407.500      308790.      351147.   -0.0804956
      410.500      313348.      351147.   -0.0620066
      413.500      315140.      351147.   -0.0400308
      416.500      324627.      351147.   -0.0023571
      419.500      328414.      351147.    0.0090681
      422.500      334474.      351147.    0.0341466
      425.500      333969.      351147.    0.0404641
      428.500      336178.      351147.    0.0497477
      431.500      337817.      351147.    0.0490098
      434.500      327579.      351147.    0.0333474
      437.500      328129.      351147.    0.0241147
      440.500      328678.      351147.    0.0159330
      443.500      324716.      351147.    0.0072850
      446.500      317001.      351147.    0.0034967
      449.500      317089.      351147.    0.0064589
      452.500      318093.      351147.    0.0166533
      455.500      310929.      351147.    0.0293534
      458.500      306110.      351147.    0.0368231
      461.500      301855.      351147.    0.0406109
      464.500      296565.      351147.    0.0574746
      467.500      286016.      351147.    0.0333895
      470.500      291472.      351147.    0.0606005
      473.500      284771.      351147.    0.0374064
      476.500      281051.      351147.    0.0189088
      479.500      265513.      351147.   -0.0245550
      482.500      262762.      351147.   -0.0389067
      485.500      248126.      351147.   -0.0964346
       3     121      9.85000      18      1.00000      0.00000
      128.500      313086.      358090.   -0.1202601
      131.500      312026.      358090.   -0.1104156
      134.500      305322.      358090.   -0.1090685
      137.500      346218.      358090.   -0.0919339
      140.500      359008.      358090.   -0.0703933
      143.500      359524.      358090.   -0.0331176
      146.500      413043.      358090.    0.0471402
      149.500      425746.      358090.    0.0980575
      152.500      402044.      358090.    0.0774333
      155.500      402564.      358090.    0.0790095
      158.500      402893.      358090.    0.0486935
      161.500      427072.      358090.    0.0923532
      164.500      384835.      358090.   -0.0036815
      167.500      397458.      358090.    0.0592554
      170.500      405080.      358090.    0.0550954
      173.500      381979.      358090.   -0.0085412
      176.500      352965.      358090.   -0.0088789
      179.500      378515.      358090.    0.0209698
      182.500      375527.      358090.    0.0336558
      185.500      385429.      358090.    0.0232917
      188.500      381659.      358090.    0.0176162
      191.500      396300.      358090.    0.0351506
      194.500      424114.      358090.    0.0912251
      197.500      422935.      358090.    0.0379889
      200.500      407399.      358090.    0.0382567
      203.500      377217.      358090.   -0.0107187
      206.500      358357.      358090.   -0.0209015
      209.500      357652.      358090.   -0.0515164
      212.500      344996.      358090.   -0.0917842
      215.500      323960.      358090.   -0.1237201
      218.500      314417.      358090.   -0.1202601
      221.500      326369.      358090.   -0.1104156
      224.500      337152.      358090.   -0.1090685
      227.500      309876.      358090.   -0.0919339
      230.500      314863.      358090.   -0.0703933
      233.500      343033.      358090.   -0.0331175
      236.500      349658.      358090.    0.0471402
      239.500      374792.      358090.    0.0980575
      242.500      383026.      358090.    0.0774333
      245.500      383467.      358090.    0.0790095
      248.500      361448.      358090.    0.0486935
      251.500      368990.      358090.    0.0923532
      254.500      339831.      358090.   -0.0036815
      257.500      370374.      358090.    0.0592554
      260.500      359190.      358090.    0.0550953
      263.500      334702.      358090.   -0.0085412
      266.500      357780.      358090.   -0.0088789
      269.500      353527.      358090.    0.0209698
      272.500      362246.      358090.    0.0336558
      275.500      344659.      358090.    0.0232917
      278.500      341798.      358090.    0.0176163
      281.500      338471.      358090.    0.0351506
      284.500      348918.      358090.    0.0912251
      287.500      313103.      358090.    0.0379888
      290.500      323883.      358090.    0.0382567
      293.500      315503.      358090.   -0.0107187
      296.500      322589.      358090.   -0.0209015
      299.500      301612.      358090.   -0.0515164
      302.500      284750.      358090.   -0.0917842
      305.500      280476.      358090.   -0.1237201
      308.500      313086.      358090.   -0.1202601
      311.500      312026.      358090.   -0.1104156
      314.500      305322.      358090.   -0.1090685
      317.500      346218.      358090.   -0.0919339
      320.500      359008.      358090.   -0.0703933
      323.500      359524.      358090.   -0.0331176
      326.500      413043.      358090.    0.0471402
      329.500      425746.      358090.    0.0980575
      332.500      402044.      358090.    0.0774333
      335.500      402564.      358090.    0.0790095
      338.500      402893.      358090.    0.0486935
      341.500      427072.      358090.    0.0923532
      344.500      384835.      358090.   -0.0036815
      347.500      397458.      358090.    0.0592554
      350.500      405080.      358090.    0.0550954
      353.500      381979.      358090.   -0.0085412
      356.500      352965.      358090.   -0.0088789
      359.500      378515.      358090.    0.0209698
      360.000      313086.      358090.   -0.1202601
      362.500      375527.      358090.    0.0336558
      365.500      385429.      358090.    0.0232917
      368.500      381659.      358090.    0.0176162
      371.500      396300.      358090.    0.0351506
      374.500      424114.      358090.    0.0912251
      377.500      422935.      358090.    0.0379889
      380.500      407399.      358090.    0.0382567
      383.500      377217.      358090.   -0.0107187
      386.500      358357.      358090.   -0.0209015
      389.500      357652.      358090.   -0.0515164
      392.500      344996.      358090.   -0.0917842
      395.500      323960.      358090.   -0.1237201
      398.500      314417.      358090.   -0.1202601
      401.500      326369.      358090.   -0.1104156
      404.500      337152.      358090.   -0.1090685
      407.500      309876.      358090.   -0.0919339
      410.500      314863.      358090.   -0.0703933
      413.500      343033.      358090.   -0.0331175
      416.500      349658.      358090.    0.0471402
      419.500      374792.      358090.    0.0980575
      422.500      383026.      358090.    0.0774333
      425.500      383467.      358090.    0.0790095
      428.500      361448.      358090.    0.0486935
      431.500      368990.      358090.    0.0923532
      434.500      339831.      358090.   -0.0036815
      437.500      370374.      358090.    0.0592554
      440.500      359190.      358090.    0.0550953
      443.500      334702.      358090.   -0.0085412
      446.500      357780.      358090.   -0.0088789
      449.500      353527.      358090.    0.0209698
      452.500      362246.      358090.    0.0336558
      455.500      344659.      358090.    0.0232917
      458.500      341798.      358090.    0.0176163
      461.500      338471.      358090.    0.0351506
      464.500      348918.      358090.    0.0912251
      467.500      313103.      358090.    0.0379888
      470.500      323883.      358090.    0.0382567
